* Estimated atmospheric values for TJCH. Height estimate:    37.1866 +/- 0.1139 m.
* METUTIL Version 3.0  2009-08-27
* Input files: otesta.293                  tjch2930.15m  ZTD-file sigmas scaled by   1.0
* Yr  Doy Hr Mn Sec  Total Zen  Wet Zen  Sig Zen    PW   Sig PW (mm)  Press (hPa)  Temp (K) ZHD (mm)   Grad NS   Sig NS  Grad EW   Sig EW (mm)
 2015 293  0  0  0.    2439.80   120.08   12.40   19.56    2.02        1017.10      294.36   2319.72    -27.20    25.80    -1.70    25.80
 2015 293  1  0  0.    2444.20   124.48    9.30   20.29    1.52        1017.10      294.51   2319.72    -26.65    25.77    -1.96    25.75
 2015 293  2  0  0.    2449.60   130.11    8.70   21.22    1.42        1017.00      294.71   2319.49    -26.10    25.73    -2.23    25.70
 2015 293  3  0  0.    2458.40   139.71    7.90   22.78    1.29        1016.65      294.66   2318.69    -25.55    25.70    -2.49    25.65
 2015 293  4  0  0.    2445.10   126.64    8.30   20.64    1.35        1016.55      294.46   2318.46    -25.00    25.67    -2.75    25.60
 2015 293  5  0  0.    2446.80   126.97   11.90   20.68    1.94        1017.15      294.31   2319.83    -24.45    25.64    -3.01    25.55
 2015 293  6  0  0.    2460.70   140.30    7.70   22.85    1.25        1017.40      294.21   2320.40    -23.90    25.60    -3.27    25.51
 2015 293  7  0  0.    2465.90   147.09    7.70   23.97    1.25        1016.70      294.46   2318.81    -23.35    25.57    -3.54    25.46
 2015 293  8  0  0.    2472.40   156.90   10.90   25.61    1.78        1015.25      295.11   2315.50    -22.80    25.54    -3.80    25.41
 2015 293  9  0  0.    2474.60   165.75    7.80   27.08    1.27        1012.33      295.46   2308.85    -22.25    25.50    -4.06    25.36
 2015 293 10  0  0.    2474.90   165.90    7.90   27.08    1.29        1012.40      295.06   2309.00    -21.70    25.47    -4.33    25.31
 2015 293 11  0  0.    2464.40   154.94    8.10   25.26    1.32        1012.60      294.56   2309.46    -21.15    25.44    -4.59    25.26
 2015 293 12  0  0.    2457.00   146.63    8.20   23.88    1.34        1013.00      294.26   2310.37    -20.60    25.40    -4.85    25.21
 2015 293 13  0  0.    2450.00   139.18    8.30   22.65    1.35        1013.20      293.96   2310.82    -20.05    25.37    -5.11    25.16
 2015 293 14  0  0.    2449.60   137.86    8.80   22.42    1.43        1013.60      293.66   2311.74    -19.50    25.34    -5.38    25.11
 2015 293 15  0  0.    2446.50   134.54    7.60   21.87    1.24        1013.70      293.46   2311.96    -18.95    25.30    -5.64    25.06
 2015 293 16  0  0.    2434.20   122.46    8.00   19.89    1.30        1013.60      293.16   2311.74    -18.40    25.27    -5.90    25.01
 2015 293 17  0  0.    2425.70   114.65    8.00   18.61    1.30        1013.30      292.86   2311.05    -17.85    25.24    -6.16    24.96
 2015 293 18  0  0.    2422.50   111.68    7.40   18.12    1.20        1013.20      292.66   2310.82    -17.30    25.20    -6.42    24.91
 2015 293 19  0  0.    2421.40   110.58    8.30   17.92    1.35        1013.20      292.36   2310.82    -16.75    25.17    -6.69    24.85
 2015 293 20  0  0.    2422.10   111.73    8.20   18.12    1.33        1013.00      292.56   2310.37    -16.20    25.14    -6.95    24.80
 2015 293 21  0  0.    2419.80   108.75    7.80   17.63    1.26        1013.30      292.36   2311.05    -15.65    25.10    -7.21    24.75
 2015 293 22  0  0.    2412.70   100.96    7.80   16.36    1.26        1013.60      292.26   2311.74    -15.10    25.07    -7.47    24.70
 2015 293 23  0  0.    2410.80    97.70    8.10   15.86    1.31        1014.20      292.96   2313.10    -14.55    25.03    -7.74    24.65
 2015 294  0  0  0.    2410.50    95.57   12.60   15.59    2.05        1015.00      294.76   2314.93    -14.00    25.00    -8.00    24.60
