* Estimated atmospheric values for TJCH. Height estimate:    37.2106 +/- 0.1222 m.
* METUTIL Version 3.0  2009-08-27
* Input files: otesta.292                  tjch2920.15m  ZTD-file sigmas scaled by   1.0
* Yr  Doy Hr Mn Sec  Total Zen  Wet Zen  Sig Zen    PW   Sig PW (mm)  Press (hPa)  Temp (K) ZHD (mm)   Grad NS   Sig NS  Grad EW   Sig EW (mm)
 2015 292  0  0  0.    2425.30   107.63   13.50   17.50    2.19        1016.20      293.46   2317.67     29.30    29.20   -47.30    29.00
 2015 292  1  0  0.    2425.60   107.71   10.00   17.53    1.63        1016.30      293.96   2317.89     28.19    29.18   -46.08    28.96
 2015 292  2  0  0.    2419.50   102.29    9.40   16.69    1.53        1016.00      295.06   2317.21     27.08    29.16   -44.85    28.92
 2015 292  3  0  0.    2412.00    96.16    8.80   15.72    1.44        1015.40      295.81   2315.84     25.98    29.14   -43.62    28.88
 2015 292  4  0  0.    2411.60    97.81    8.80   16.02    1.44        1014.50      296.51   2313.79     24.87    29.12   -42.40    28.84
 2015 292  5  0  0.    2416.00   103.81   10.80   17.01    1.77        1013.80      296.66   2312.19     23.76    29.10   -41.18    28.79
 2015 292  6  0  0.    2425.20   114.15    8.90   18.66    1.45        1013.30      295.71   2311.05     22.65    29.08   -39.95    28.75
 2015 292  7  0  0.    2429.30   119.39    8.50   19.53    1.39        1012.80      295.99   2309.91     21.54    29.06   -38.73    28.71
 2015 292  8  0  0.    2430.00   120.09   10.90   19.61    1.78        1012.80      295.33   2309.91     20.43    29.03   -37.50    28.67
 2015 292  9  0  0.    2418.90   109.67    8.90   17.89    1.45        1012.50      294.96   2309.23     19.32    29.01   -36.28    28.63
 2015 292 10  0  0.    2425.90   115.76    8.80   18.85    1.43        1012.90      294.26   2310.14     18.22    28.99   -35.05    28.59
 2015 292 11  0  0.    2437.10   125.82    9.40   20.48    1.53        1013.40      294.06   2311.28     17.11    28.97   -33.83    28.55
 2015 292 12  0  0.    2437.60   125.18    9.30   20.37    1.51        1013.90      293.86   2312.42     16.00    28.95   -32.60    28.50
 2015 292 13  0  0.    2434.00   121.35    9.90   19.73    1.61        1014.00      293.46   2312.65     14.89    28.93   -31.38    28.46
 2015 292 14  0  0.    2426.80   114.49    9.90   18.62    1.61        1013.85      293.76   2312.31     13.78    28.91   -30.15    28.42
 2015 292 15  0  0.    2424.20   112.24    8.50   18.26    1.38        1013.70      293.81   2311.96     12.68    28.89   -28.93    28.38
 2015 292 16  0  0.    2425.80   114.18    9.00   18.58    1.46        1013.55      293.86   2311.62     11.57    28.87   -27.70    28.34
 2015 292 17  0  0.    2435.40   124.12    8.90   20.20    1.45        1013.40      293.91   2311.28     10.46    28.85   -26.48    28.30
 2015 292 18  0  0.    2443.80   132.86    8.20   21.63    1.33        1013.25      294.01   2310.94      9.35    28.83   -25.25    28.25
 2015 292 19  0  0.    2447.60   136.89    9.50   22.28    1.55        1013.15      294.06   2310.71      8.24    28.80   -24.02    28.21
 2015 292 20  0  0.    2444.40   133.92    9.40   21.80    1.53        1013.05      294.11   2310.48      7.13    28.78   -22.80    28.17
 2015 292 21  0  0.    2443.30   133.05    8.70   21.66    1.42        1012.95      294.16   2310.25      6.03    28.76   -21.57    28.13
 2015 292 22  0  0.    2452.00   141.97    8.70   23.12    1.42        1012.85      294.21   2310.03      4.92    28.74   -20.35    28.08
 2015 292 23  0  0.    2440.80   131.00    9.00   21.34    1.47        1012.75      294.31   2309.80      3.81    28.72   -19.12    28.04
 2015 293  0  0  0.    2436.30   126.62   14.00   20.63    2.28        1012.70      294.36   2309.68      2.70    28.70   -17.90    28.00
