* Estimated atmospheric values for TJCH. Height estimate:    36.9086 +/- 0.1118 m.
* METUTIL Version 3.0  2009-08-27
* Input files: otesta.043                  tjch0430.15m  ZTD-file sigmas scaled by   1.0
* Yr  Doy Hr Mn Sec  Total Zen  Wet Zen  Sig Zen    PW   Sig PW (mm)  Press (hPa)  Temp (K) ZHD (mm)   Grad NS   Sig NS  Grad EW   Sig EW (mm)
 2015  43  0  0  0.    2356.00    36.05   12.00    5.66    1.88        1017.20      279.96   2319.95    -35.80    27.40    15.90    27.20
 2015  43  1  0  0.    2360.00    38.91   11.10    6.12    1.75        1017.70      280.46   2321.09    -35.84    27.35    15.43    27.06
 2015  43  2  0  0.    2350.80    29.71    8.70    4.68    1.37        1017.70      280.96   2321.09    -35.87    27.30    14.95    26.92
 2015  43  3  0  0.    2351.80    30.60    7.90    4.83    1.25        1017.75      282.16   2321.20    -35.91    27.25    14.48    26.78
 2015  43  4  0  0.    2351.80    31.40    8.30    4.98    1.32        1017.40      283.53   2320.40    -35.95    27.20    14.00    26.63
 2015  43  5  0  0.    2351.40    32.59    7.90    5.18    1.25        1016.70      284.26   2318.81    -35.99    27.15    13.53    26.49
 2015  43  6  0  0.    2349.90    31.55    8.00    5.01    1.27        1016.50      284.09   2318.35    -36.02    27.10    13.05    26.35
 2015  43  7  0  0.    2351.80    34.13    8.40    5.42    1.33        1016.20      284.26   2317.67    -36.06    27.06    12.58    26.20
 2015  43  8  0  0.    2356.20    37.05    8.20    5.88    1.30        1016.85      283.81   2319.15    -36.10    27.01    12.10    26.06
 2015  43  9  0  0.    2361.70    41.99    8.10    6.65    1.28        1017.10      283.36   2319.71    -36.14    26.96    11.63    25.91
 2015  43 10  0  0.    2361.90    41.84    8.30    6.60    1.31        1017.25      281.46   2320.06    -36.17    26.91    11.15    25.76
 2015  43 11  0  0.    2360.60    39.51    7.60    6.21    1.19        1017.70      280.06   2321.09    -36.21    26.86    10.68    25.61
 2015  43 12  0  0.    2366.10    43.42    8.50    6.81    1.33        1018.40      279.36   2322.68    -36.25    26.81    10.20    25.46
 2015  43 13  0  0.    2368.90    45.84    8.20    7.18    1.28        1018.57      279.06   2323.06    -36.29    26.76     9.73    25.31
 2015  43 14  0  0.    2367.80    45.12    7.70    7.07    1.21        1018.40      278.96   2322.68    -36.32    26.71     9.25    25.16
 2015  43 15  0  0.    2375.60    52.92    7.30    8.29    1.14        1018.40      278.86   2322.68    -36.36    26.66     8.78    25.01
 2015  43 16  0  0.    2374.30    51.62    7.30    8.08    1.14        1018.40      278.76   2322.68    -36.40    26.61     8.30    24.86
 2015  43 17  0  0.    2375.20    53.43    7.30    8.36    1.14        1018.00      278.76   2321.77    -36.44    26.56     7.83    24.70
 2015  43 18  0  0.    2374.20    53.57    7.20    8.39    1.13        1017.50      278.76   2320.63    -36.47    26.51     7.35    24.55
 2015  43 19  0  0.    2372.80    51.71    7.20    8.09    1.13        1017.70      278.76   2321.09    -36.51    26.45     6.88    24.39
 2015  43 20  0  0.    2375.80    54.94    7.40    8.60    1.16        1017.60      278.96   2320.86    -36.55    26.40     6.40    24.24
 2015  43 21  0  0.    2379.50    58.36    7.00    9.14    1.10        1017.72      278.86   2321.14    -36.59    26.35     5.93    24.08
 2015  43 22  0  0.    2379.90    56.87    7.50    8.90    1.17        1018.55      278.56   2323.03    -36.62    26.30     5.45    23.92
 2015  43 23  0  0.    2376.70    53.33    7.40    8.35    1.16        1018.70      279.01   2323.37    -36.66    26.25     4.98    23.76
 2015  44  0  0  0.    2374.60    49.41   12.60    7.76    1.98        1019.50      279.86   2325.19    -36.70    26.20     4.50    23.60
